START OF LRA
   5.0                                                     DAZI
   0.0   90.0    5.0                                       ZEN1 / ZEN2 / DZEN
 425.0                                                     WAVELENGTH
   0.0  -19.22  -19.10  -18.71  -18.05  -17.13  -16.39  -17.72  -18.99  -19.98  -20.69  -21.11  -21.24  -21.08  -20.64  -19.90  -18.89  -17.59  -16.01  -14.56
   5.0  -19.22  -19.10  -18.71  -18.05  -17.13  -16.58  -18.25  -19.60  -20.66  -21.43  -21.91  -22.10  -21.99  -21.59  -20.89  -19.91  -18.63  -17.08  -15.64
  10.0  -19.22  -19.10  -18.71  -18.05  -17.13  -16.80  -18.85  -20.28  -21.42  -22.27  -22.81  -23.06  -23.01  -22.66  -22.01  -21.06  -19.82  -18.29  -16.86
  15.0  -19.22  -19.10  -18.71  -18.05  -17.13  -16.97  -19.32  -20.82  -22.02  -22.92  -23.53  -23.82  -23.82  -23.50  -22.89  -21.97  -20.75  -19.23  -17.82
  20.0  -19.22  -19.10  -18.71  -18.05  -17.13  -17.09  -19.66  -21.20  -22.45  -23.40  -24.04  -24.37  -24.40  -24.11  -23.52  -22.62  -21.42  -19.92  -18.51
  25.0  -19.22  -19.10  -18.71  -18.05  -17.13  -17.16  -19.87  -21.44  -22.72  -23.69  -24.35  -24.71  -24.75  -24.48  -23.91  -23.02  -21.83  -20.33  -18.93
  30.0  -19.22  -19.10  -18.71  -18.05  -17.13  -17.19  -19.94  -21.52  -22.81  -23.79  -24.46  -24.83  -24.88  -24.62  -24.04  -23.16  -21.97  -20.48  -19.08
  35.0  -19.22  -19.10  -18.71  -18.05  -17.13  -17.17  -19.88  -21.46  -22.73  -23.71  -24.37  -24.73  -24.77  -24.51  -23.93  -23.05  -21.85  -20.36  -18.96
  40.0  -19.22  -19.10  -18.71  -18.05  -17.13  -17.10  -19.69  -21.23  -22.49  -23.44  -24.08  -24.42  -24.44  -24.16  -23.57  -22.67  -21.47  -19.97  -18.57
  45.0  -19.22  -19.10  -18.71  -18.05  -17.13  -16.98  -19.36  -20.86  -22.07  -22.98  -23.59  -23.89  -23.88  -23.58  -22.96  -22.04  -20.83  -19.31  -17.90
  50.0  -19.22  -19.10  -18.71  -18.05  -17.13  -16.82  -18.90  -20.34  -21.49  -22.34  -22.89  -23.15  -23.10  -22.76  -22.11  -21.16  -19.92  -18.39  -16.97
  55.0  -19.22  -19.10  -18.71  -18.05  -17.13  -16.61  -18.31  -19.67  -20.74  -21.52  -22.01  -22.20  -22.10  -21.70  -21.01  -20.03  -18.76  -17.21  -15.77
  60.0  -19.22  -19.10  -18.71  -18.05  -17.13  -16.41  -17.76  -19.04  -20.03  -20.74  -21.17  -21.30  -21.15  -20.71  -19.97  -18.96  -17.66  -16.09  -14.64
  65.0  -19.22  -19.10  -18.71  -18.05  -17.13  -16.58  -18.25  -19.60  -20.66  -21.43  -21.91  -22.10  -21.99  -21.59  -20.89  -19.91  -18.63  -17.08  -15.64
  70.0  -19.22  -19.10  -18.71  -18.05  -17.13  -16.80  -18.85  -20.28  -21.42  -22.27  -22.81  -23.06  -23.01  -22.66  -22.01  -21.06  -19.82  -18.29  -16.86
  75.0  -19.22  -19.10  -18.71  -18.05  -17.13  -16.97  -19.32  -20.82  -22.02  -22.92  -23.53  -23.82  -23.82  -23.50  -22.89  -21.97  -20.75  -19.23  -17.82
  80.0  -19.22  -19.10  -18.71  -18.05  -17.13  -17.09  -19.66  -21.20  -22.45  -23.40  -24.04  -24.37  -24.40  -24.11  -23.52  -22.62  -21.42  -19.92  -18.51
  85.0  -19.22  -19.10  -18.71  -18.05  -17.13  -17.16  -19.87  -21.44  -22.72  -23.69  -24.35  -24.71  -24.75  -24.48  -23.91  -23.02  -21.83  -20.33  -18.93
  90.0  -19.22  -19.10  -18.71  -18.05  -17.13  -17.19  -19.94  -21.52  -22.81  -23.79  -24.46  -24.83  -24.88  -24.62  -24.04  -23.16  -21.97  -20.48  -19.08
  95.0  -19.22  -19.10  -18.71  -18.05  -17.13  -17.17  -19.88  -21.46  -22.73  -23.71  -24.37  -24.73  -24.77  -24.51  -23.93  -23.05  -21.85  -20.36  -18.96
 100.0  -19.22  -19.10  -18.71  -18.05  -17.13  -17.10  -19.69  -21.23  -22.49  -23.44  -24.08  -24.42  -24.44  -24.16  -23.57  -22.67  -21.47  -19.97  -18.57
 105.0  -19.22  -19.10  -18.71  -18.05  -17.13  -16.98  -19.36  -20.86  -22.07  -22.98  -23.59  -23.89  -23.88  -23.58  -22.96  -22.04  -20.83  -19.31  -17.90
 110.0  -19.22  -19.10  -18.71  -18.05  -17.13  -16.82  -18.90  -20.34  -21.49  -22.34  -22.89  -23.15  -23.10  -22.76  -22.11  -21.16  -19.92  -18.39  -16.97
 115.0  -19.22  -19.10  -18.71  -18.05  -17.13  -16.61  -18.31  -19.67  -20.74  -21.52  -22.01  -22.20  -22.10  -21.70  -21.01  -20.03  -18.76  -17.21  -15.77
 120.0  -19.22  -19.10  -18.71  -18.05  -17.13  -16.41  -17.76  -19.04  -20.03  -20.74  -21.17  -21.30  -21.15  -20.71  -19.97  -18.96  -17.66  -16.09  -14.64
 125.0  -19.22  -19.10  -18.71  -18.05  -17.13  -16.58  -18.25  -19.60  -20.66  -21.43  -21.91  -22.10  -21.99  -21.59  -20.89  -19.91  -18.63  -17.08  -15.64
 130.0  -19.22  -19.10  -18.71  -18.05  -17.13  -16.80  -18.85  -20.28  -21.42  -22.27  -22.81  -23.06  -23.01  -22.66  -22.01  -21.06  -19.82  -18.29  -16.86
 135.0  -19.22  -19.10  -18.71  -18.05  -17.13  -16.97  -19.32  -20.82  -22.02  -22.92  -23.53  -23.82  -23.82  -23.50  -22.89  -21.97  -20.75  -19.23  -17.82
 140.0  -19.22  -19.10  -18.71  -18.05  -17.13  -17.09  -19.66  -21.20  -22.45  -23.40  -24.04  -24.37  -24.40  -24.11  -23.52  -22.62  -21.42  -19.92  -18.51
 145.0  -19.22  -19.10  -18.71  -18.05  -17.13  -17.16  -19.87  -21.44  -22.72  -23.69  -24.35  -24.71  -24.75  -24.48  -23.91  -23.02  -21.83  -20.33  -18.93
 150.0  -19.22  -19.10  -18.71  -18.05  -17.13  -17.19  -19.94  -21.52  -22.81  -23.79  -24.46  -24.83  -24.88  -24.62  -24.04  -23.16  -21.97  -20.48  -19.08
 155.0  -19.22  -19.10  -18.71  -18.05  -17.13  -17.17  -19.88  -21.46  -22.73  -23.71  -24.37  -24.73  -24.77  -24.51  -23.93  -23.05  -21.85  -20.36  -18.96
 160.0  -19.22  -19.10  -18.71  -18.05  -17.13  -17.10  -19.69  -21.23  -22.49  -23.44  -24.08  -24.42  -24.44  -24.16  -23.57  -22.67  -21.47  -19.97  -18.57
 165.0  -19.22  -19.10  -18.71  -18.05  -17.13  -16.98  -19.36  -20.86  -22.07  -22.98  -23.59  -23.89  -23.88  -23.58  -22.96  -22.04  -20.83  -19.31  -17.90
 170.0  -19.22  -19.10  -18.71  -18.05  -17.13  -16.82  -18.90  -20.34  -21.49  -22.34  -22.89  -23.15  -23.10  -22.76  -22.11  -21.16  -19.92  -18.39  -16.97
 175.0  -19.22  -19.10  -18.71  -18.05  -17.13  -16.61  -18.31  -19.67  -20.74  -21.52  -22.01  -22.20  -22.10  -21.70  -21.01  -20.03  -18.76  -17.21  -15.77
 180.0  -19.22  -19.10  -18.71  -18.05  -17.13  -16.41  -17.76  -19.04  -20.03  -20.74  -21.17  -21.30  -21.15  -20.71  -19.97  -18.96  -17.66  -16.09  -14.64
 185.0  -19.22  -19.10  -18.71  -18.05  -17.13  -16.58  -18.25  -19.60  -20.66  -21.43  -21.91  -22.10  -21.99  -21.59  -20.89  -19.91  -18.63  -17.08  -15.64
 190.0  -19.22  -19.10  -18.71  -18.05  -17.13  -16.80  -18.85  -20.28  -21.42  -22.27  -22.81  -23.06  -23.01  -22.66  -22.01  -21.06  -19.82  -18.29  -16.86
 195.0  -19.22  -19.10  -18.71  -18.05  -17.13  -16.97  -19.32  -20.82  -22.02  -22.92  -23.53  -23.82  -23.82  -23.50  -22.89  -21.97  -20.75  -19.23  -17.82
 200.0  -19.22  -19.10  -18.71  -18.05  -17.13  -17.09  -19.66  -21.20  -22.45  -23.40  -24.04  -24.37  -24.40  -24.11  -23.52  -22.62  -21.42  -19.92  -18.51
 205.0  -19.22  -19.10  -18.71  -18.05  -17.13  -17.16  -19.87  -21.44  -22.72  -23.69  -24.35  -24.71  -24.75  -24.48  -23.91  -23.02  -21.83  -20.33  -18.93
 210.0  -19.22  -19.10  -18.71  -18.05  -17.13  -17.19  -19.94  -21.52  -22.81  -23.79  -24.46  -24.83  -24.88  -24.62  -24.04  -23.16  -21.97  -20.48  -19.08
 215.0  -19.22  -19.10  -18.71  -18.05  -17.13  -17.17  -19.88  -21.46  -22.73  -23.71  -24.37  -24.73  -24.77  -24.51  -23.93  -23.05  -21.85  -20.36  -18.96
 220.0  -19.22  -19.10  -18.71  -18.05  -17.13  -17.10  -19.69  -21.23  -22.49  -23.44  -24.08  -24.42  -24.44  -24.16  -23.57  -22.67  -21.47  -19.97  -18.57
 225.0  -19.22  -19.10  -18.71  -18.05  -17.13  -16.98  -19.36  -20.86  -22.07  -22.98  -23.59  -23.89  -23.88  -23.58  -22.96  -22.04  -20.83  -19.31  -17.90
 230.0  -19.22  -19.10  -18.71  -18.05  -17.13  -16.82  -18.90  -20.34  -21.49  -22.34  -22.89  -23.15  -23.10  -22.76  -22.11  -21.16  -19.92  -18.39  -16.97
 235.0  -19.22  -19.10  -18.71  -18.05  -17.13  -16.61  -18.31  -19.67  -20.74  -21.52  -22.01  -22.20  -22.10  -21.70  -21.01  -20.03  -18.76  -17.21  -15.77
 240.0  -19.22  -19.10  -18.71  -18.05  -17.13  -16.41  -17.76  -19.04  -20.03  -20.74  -21.17  -21.30  -21.15  -20.71  -19.97  -18.96  -17.66  -16.09  -14.64
 245.0  -19.22  -19.10  -18.71  -18.05  -17.13  -16.58  -18.25  -19.60  -20.66  -21.43  -21.91  -22.10  -21.99  -21.59  -20.89  -19.91  -18.63  -17.08  -15.64
 250.0  -19.22  -19.10  -18.71  -18.05  -17.13  -16.80  -18.85  -20.28  -21.42  -22.27  -22.81  -23.06  -23.01  -22.66  -22.01  -21.06  -19.82  -18.29  -16.86
 255.0  -19.22  -19.10  -18.71  -18.05  -17.13  -16.97  -19.32  -20.82  -22.02  -22.92  -23.53  -23.82  -23.82  -23.50  -22.89  -21.97  -20.75  -19.23  -17.82
 260.0  -19.22  -19.10  -18.71  -18.05  -17.13  -17.09  -19.66  -21.20  -22.45  -23.40  -24.04  -24.37  -24.40  -24.11  -23.52  -22.62  -21.42  -19.92  -18.51
 265.0  -19.22  -19.10  -18.71  -18.05  -17.13  -17.16  -19.87  -21.44  -22.72  -23.69  -24.35  -24.71  -24.75  -24.48  -23.91  -23.02  -21.83  -20.33  -18.93
 270.0  -19.22  -19.10  -18.71  -18.05  -17.13  -17.19  -19.94  -21.52  -22.81  -23.79  -24.46  -24.83  -24.88  -24.62  -24.04  -23.16  -21.97  -20.48  -19.08
 275.0  -19.22  -19.10  -18.71  -18.05  -17.13  -17.17  -19.88  -21.46  -22.73  -23.71  -24.37  -24.73  -24.77  -24.51  -23.93  -23.05  -21.85  -20.36  -18.96
 280.0  -19.22  -19.10  -18.71  -18.05  -17.13  -17.10  -19.69  -21.23  -22.49  -23.44  -24.08  -24.42  -24.44  -24.16  -23.57  -22.67  -21.47  -19.97  -18.57
 285.0  -19.22  -19.10  -18.71  -18.05  -17.13  -16.98  -19.36  -20.86  -22.07  -22.98  -23.59  -23.89  -23.88  -23.58  -22.96  -22.04  -20.83  -19.31  -17.90
 290.0  -19.22  -19.10  -18.71  -18.05  -17.13  -16.82  -18.90  -20.34  -21.49  -22.34  -22.89  -23.15  -23.10  -22.76  -22.11  -21.16  -19.92  -18.39  -16.97
 295.0  -19.22  -19.10  -18.71  -18.05  -17.13  -16.61  -18.31  -19.67  -20.74  -21.52  -22.01  -22.20  -22.10  -21.70  -21.01  -20.03  -18.76  -17.21  -15.77
 300.0  -19.22  -19.10  -18.71  -18.05  -17.13  -16.41  -17.76  -19.04  -20.03  -20.74  -21.17  -21.30  -21.15  -20.71  -19.97  -18.96  -17.66  -16.09  -14.64
 305.0  -19.22  -19.10  -18.71  -18.05  -17.13  -16.58  -18.25  -19.60  -20.66  -21.43  -21.91  -22.10  -21.99  -21.59  -20.89  -19.91  -18.63  -17.08  -15.64
 310.0  -19.22  -19.10  -18.71  -18.05  -17.13  -16.80  -18.85  -20.28  -21.42  -22.27  -22.81  -23.06  -23.01  -22.66  -22.01  -21.06  -19.82  -18.29  -16.86
 315.0  -19.22  -19.10  -18.71  -18.05  -17.13  -16.97  -19.32  -20.82  -22.02  -22.92  -23.53  -23.82  -23.82  -23.50  -22.89  -21.97  -20.75  -19.23  -17.82
 320.0  -19.22  -19.10  -18.71  -18.05  -17.13  -17.09  -19.66  -21.20  -22.45  -23.40  -24.04  -24.37  -24.40  -24.11  -23.52  -22.62  -21.42  -19.92  -18.51
 325.0  -19.22  -19.10  -18.71  -18.05  -17.13  -17.16  -19.87  -21.44  -22.72  -23.69  -24.35  -24.71  -24.75  -24.48  -23.91  -23.02  -21.83  -20.33  -18.93
 330.0  -19.22  -19.10  -18.71  -18.05  -17.13  -17.19  -19.94  -21.52  -22.81  -23.79  -24.46  -24.83  -24.88  -24.62  -24.04  -23.16  -21.97  -20.48  -19.08
 335.0  -19.22  -19.10  -18.71  -18.05  -17.13  -17.17  -19.88  -21.46  -22.73  -23.71  -24.37  -24.73  -24.77  -24.51  -23.93  -23.05  -21.85  -20.36  -18.96
 340.0  -19.22  -19.10  -18.71  -18.05  -17.13  -17.10  -19.69  -21.23  -22.49  -23.44  -24.08  -24.42  -24.44  -24.16  -23.57  -22.67  -21.47  -19.97  -18.57
 345.0  -19.22  -19.10  -18.71  -18.05  -17.13  -16.98  -19.36  -20.86  -22.07  -22.98  -23.59  -23.89  -23.88  -23.58  -22.96  -22.04  -20.83  -19.31  -17.90
 350.0  -19.22  -19.10  -18.71  -18.05  -17.13  -16.82  -18.90  -20.34  -21.49  -22.34  -22.89  -23.15  -23.10  -22.76  -22.11  -21.16  -19.92  -18.39  -16.97
 355.0  -19.22  -19.10  -18.71  -18.05  -17.13  -16.61  -18.31  -19.67  -20.74  -21.52  -22.01  -22.20  -22.10  -21.70  -21.01  -20.03  -18.76  -17.21  -15.77
 360.0  -19.22  -19.10  -18.71  -18.05  -17.13  -16.41  -17.76  -19.04  -20.03  -20.74  -21.17  -21.30  -21.15  -20.70  -19.97  -18.96  -17.66  -16.08  -14.64
END OF LRA