START OF LRA
   5.0                                                     DAZI
   0.0   90.0    5.0                                       ZEN1 / ZEN2 / DZEN
 849.8                                                     WAVELENGTH
   0.0  -20.00  -19.87  -19.49  -18.84  -17.93  -17.22  -18.56  -19.82  -20.80  -21.50  -21.92  -22.05  -21.89  -21.45  -20.73  -19.72  -18.43  -16.87  -15.43
   5.0  -20.00  -19.87  -19.49  -18.84  -17.93  -17.41  -19.08  -20.42  -21.47  -22.24  -22.71  -22.90  -22.79  -22.39  -21.70  -20.73  -19.47  -17.92  -16.50
  10.0  -20.00  -19.87  -19.49  -18.84  -17.93  -17.62  -19.68  -21.09  -22.23  -23.06  -23.61  -23.86  -23.81  -23.46  -22.81  -21.87  -20.64  -19.12  -17.71
  15.0  -20.00  -19.87  -19.49  -18.84  -17.93  -17.79  -20.14  -21.63  -22.82  -23.72  -24.31  -24.61  -24.60  -24.29  -23.68  -22.77  -21.56  -20.06  -18.66
  20.0  -20.00  -19.87  -19.49  -18.84  -17.93  -17.91  -20.48  -22.01  -23.25  -24.19  -24.82  -25.15  -25.18  -24.90  -24.31  -23.42  -22.23  -20.74  -19.35
  25.0  -20.00  -19.87  -19.49  -18.84  -17.93  -17.98  -20.69  -22.25  -23.51  -24.47  -25.13  -25.49  -25.53  -25.27  -24.69  -23.81  -22.63  -21.15  -19.76
  30.0  -20.00  -19.87  -19.49  -18.84  -17.93  -18.01  -20.76  -22.33  -23.60  -24.58  -25.24  -25.60  -25.65  -25.40  -24.83  -23.95  -22.78  -21.30  -19.91
  35.0  -20.00  -19.87  -19.49  -18.84  -17.93  -17.99  -20.70  -22.26  -23.53  -24.49  -25.15  -25.51  -25.55  -25.29  -24.72  -23.84  -22.66  -21.18  -19.79
  40.0  -20.00  -19.87  -19.49  -18.84  -17.93  -17.92  -20.51  -22.04  -23.28  -24.22  -24.86  -25.20  -25.22  -24.94  -24.36  -23.47  -22.28  -20.79  -19.40
  45.0  -20.00  -19.87  -19.49  -18.84  -17.93  -17.80  -20.18  -21.67  -22.87  -23.77  -24.37  -24.67  -24.67  -24.36  -23.76  -22.85  -21.64  -20.14  -18.74
  50.0  -20.00  -19.87  -19.49  -18.84  -17.93  -17.64  -19.73  -21.15  -22.29  -23.14  -23.69  -23.94  -23.90  -23.55  -22.91  -21.97  -20.74  -19.23  -17.82
  55.0  -20.00  -19.87  -19.49  -18.84  -17.93  -17.43  -19.15  -20.49  -21.55  -22.33  -22.81  -23.00  -22.90  -22.51  -21.83  -20.85  -19.59  -18.06  -16.63
  60.0  -20.00  -19.87  -19.49  -18.84  -17.93  -17.23  -18.60  -19.86  -20.85  -21.56  -21.98  -22.11  -21.96  -21.52  -20.80  -19.79  -18.50  -16.94  -15.50
  65.0  -20.00  -19.87  -19.49  -18.84  -17.93  -17.41  -19.08  -20.42  -21.47  -22.24  -22.71  -22.90  -22.79  -22.39  -21.70  -20.73  -19.47  -17.92  -16.50
  70.0  -20.00  -19.87  -19.49  -18.84  -17.93  -17.62  -19.68  -21.09  -22.23  -23.06  -23.61  -23.86  -23.81  -23.46  -22.81  -21.87  -20.64  -19.12  -17.71
  75.0  -20.00  -19.87  -19.49  -18.84  -17.93  -17.79  -20.14  -21.63  -22.82  -23.72  -24.31  -24.61  -24.60  -24.29  -23.68  -22.77  -21.56  -20.06  -18.66
  80.0  -20.00  -19.87  -19.49  -18.84  -17.93  -17.91  -20.48  -22.01  -23.25  -24.19  -24.82  -25.15  -25.18  -24.90  -24.31  -23.42  -22.23  -20.74  -19.35
  85.0  -20.00  -19.87  -19.49  -18.84  -17.93  -17.98  -20.69  -22.25  -23.51  -24.47  -25.13  -25.49  -25.53  -25.27  -24.69  -23.81  -22.63  -21.15  -19.76
  90.0  -20.00  -19.87  -19.49  -18.84  -17.93  -18.01  -20.76  -22.33  -23.60  -24.58  -25.24  -25.60  -25.65  -25.40  -24.83  -23.95  -22.78  -21.30  -19.91
  95.0  -20.00  -19.87  -19.49  -18.84  -17.93  -17.99  -20.70  -22.26  -23.53  -24.49  -25.15  -25.51  -25.55  -25.29  -24.72  -23.84  -22.66  -21.18  -19.79
 100.0  -20.00  -19.87  -19.49  -18.84  -17.93  -17.92  -20.51  -22.04  -23.28  -24.22  -24.86  -25.20  -25.22  -24.94  -24.36  -23.47  -22.28  -20.79  -19.40
 105.0  -20.00  -19.87  -19.49  -18.84  -17.93  -17.80  -20.18  -21.67  -22.87  -23.77  -24.37  -24.67  -24.67  -24.36  -23.76  -22.85  -21.64  -20.14  -18.74
 110.0  -20.00  -19.87  -19.49  -18.84  -17.93  -17.64  -19.73  -21.15  -22.29  -23.14  -23.69  -23.94  -23.90  -23.55  -22.91  -21.97  -20.74  -19.23  -17.82
 115.0  -20.00  -19.87  -19.49  -18.84  -17.93  -17.43  -19.15  -20.49  -21.55  -22.33  -22.81  -23.00  -22.90  -22.51  -21.83  -20.85  -19.59  -18.06  -16.63
 120.0  -20.00  -19.87  -19.49  -18.84  -17.93  -17.23  -18.60  -19.86  -20.85  -21.56  -21.98  -22.11  -21.96  -21.52  -20.80  -19.79  -18.50  -16.94  -15.50
 125.0  -20.00  -19.87  -19.49  -18.84  -17.93  -17.41  -19.08  -20.42  -21.47  -22.24  -22.71  -22.90  -22.79  -22.39  -21.70  -20.73  -19.47  -17.92  -16.50
 130.0  -20.00  -19.87  -19.49  -18.84  -17.93  -17.62  -19.68  -21.09  -22.23  -23.06  -23.61  -23.86  -23.81  -23.46  -22.81  -21.87  -20.64  -19.12  -17.71
 135.0  -20.00  -19.87  -19.49  -18.84  -17.93  -17.79  -20.14  -21.63  -22.82  -23.72  -24.31  -24.61  -24.60  -24.29  -23.68  -22.77  -21.56  -20.06  -18.66
 140.0  -20.00  -19.87  -19.49  -18.84  -17.93  -17.91  -20.48  -22.01  -23.25  -24.19  -24.82  -25.15  -25.18  -24.90  -24.31  -23.42  -22.23  -20.74  -19.35
 145.0  -20.00  -19.87  -19.49  -18.84  -17.93  -17.98  -20.69  -22.25  -23.51  -24.47  -25.13  -25.49  -25.53  -25.27  -24.69  -23.81  -22.63  -21.15  -19.76
 150.0  -20.00  -19.87  -19.49  -18.84  -17.93  -18.01  -20.76  -22.33  -23.60  -24.58  -25.24  -25.60  -25.65  -25.40  -24.83  -23.95  -22.78  -21.30  -19.91
 155.0  -20.00  -19.87  -19.49  -18.84  -17.93  -17.99  -20.70  -22.26  -23.53  -24.49  -25.15  -25.51  -25.55  -25.29  -24.72  -23.84  -22.66  -21.18  -19.79
 160.0  -20.00  -19.87  -19.49  -18.84  -17.93  -17.92  -20.51  -22.04  -23.28  -24.22  -24.86  -25.20  -25.22  -24.94  -24.36  -23.47  -22.28  -20.79  -19.40
 165.0  -20.00  -19.87  -19.49  -18.84  -17.93  -17.80  -20.18  -21.67  -22.87  -23.77  -24.37  -24.67  -24.67  -24.36  -23.76  -22.85  -21.64  -20.14  -18.74
 170.0  -20.00  -19.87  -19.49  -18.84  -17.93  -17.64  -19.73  -21.15  -22.29  -23.14  -23.69  -23.94  -23.90  -23.55  -22.91  -21.97  -20.74  -19.23  -17.82
 175.0  -20.00  -19.87  -19.49  -18.84  -17.93  -17.43  -19.15  -20.49  -21.55  -22.33  -22.81  -23.00  -22.90  -22.51  -21.83  -20.85  -19.59  -18.06  -16.63
 180.0  -20.00  -19.87  -19.49  -18.84  -17.93  -17.23  -18.60  -19.86  -20.85  -21.56  -21.98  -22.11  -21.96  -21.52  -20.80  -19.79  -18.50  -16.94  -15.50
 185.0  -20.00  -19.87  -19.49  -18.84  -17.93  -17.41  -19.08  -20.42  -21.47  -22.24  -22.71  -22.90  -22.79  -22.39  -21.70  -20.73  -19.47  -17.92  -16.50
 190.0  -20.00  -19.87  -19.49  -18.84  -17.93  -17.62  -19.68  -21.09  -22.23  -23.06  -23.61  -23.86  -23.81  -23.46  -22.81  -21.87  -20.64  -19.12  -17.71
 195.0  -20.00  -19.87  -19.49  -18.84  -17.93  -17.79  -20.14  -21.63  -22.82  -23.72  -24.31  -24.61  -24.60  -24.29  -23.68  -22.77  -21.56  -20.06  -18.66
 200.0  -20.00  -19.87  -19.49  -18.84  -17.93  -17.91  -20.48  -22.01  -23.25  -24.19  -24.82  -25.15  -25.18  -24.90  -24.31  -23.42  -22.23  -20.74  -19.35
 205.0  -20.00  -19.87  -19.49  -18.84  -17.93  -17.98  -20.69  -22.25  -23.51  -24.47  -25.13  -25.49  -25.53  -25.27  -24.69  -23.81  -22.63  -21.15  -19.76
 210.0  -20.00  -19.87  -19.49  -18.84  -17.93  -18.01  -20.76  -22.33  -23.60  -24.58  -25.24  -25.60  -25.65  -25.40  -24.83  -23.95  -22.78  -21.30  -19.91
 215.0  -20.00  -19.87  -19.49  -18.84  -17.93  -17.99  -20.70  -22.26  -23.53  -24.49  -25.15  -25.51  -25.55  -25.29  -24.72  -23.84  -22.66  -21.18  -19.79
 220.0  -20.00  -19.87  -19.49  -18.84  -17.93  -17.92  -20.51  -22.04  -23.28  -24.22  -24.86  -25.20  -25.22  -24.94  -24.36  -23.47  -22.28  -20.79  -19.40
 225.0  -20.00  -19.87  -19.49  -18.84  -17.93  -17.80  -20.18  -21.67  -22.87  -23.77  -24.37  -24.67  -24.67  -24.36  -23.76  -22.85  -21.64  -20.14  -18.74
 230.0  -20.00  -19.87  -19.49  -18.84  -17.93  -17.64  -19.73  -21.15  -22.29  -23.14  -23.69  -23.94  -23.90  -23.55  -22.91  -21.97  -20.74  -19.23  -17.82
 235.0  -20.00  -19.87  -19.49  -18.84  -17.93  -17.43  -19.15  -20.49  -21.55  -22.33  -22.81  -23.00  -22.90  -22.51  -21.83  -20.85  -19.59  -18.06  -16.63
 240.0  -20.00  -19.87  -19.49  -18.84  -17.93  -17.23  -18.60  -19.86  -20.85  -21.56  -21.98  -22.11  -21.96  -21.52  -20.80  -19.79  -18.50  -16.94  -15.50
 245.0  -20.00  -19.87  -19.49  -18.84  -17.93  -17.41  -19.08  -20.42  -21.47  -22.24  -22.71  -22.90  -22.79  -22.39  -21.70  -20.73  -19.47  -17.92  -16.50
 250.0  -20.00  -19.87  -19.49  -18.84  -17.93  -17.62  -19.68  -21.09  -22.23  -23.06  -23.61  -23.86  -23.81  -23.46  -22.81  -21.87  -20.64  -19.12  -17.71
 255.0  -20.00  -19.87  -19.49  -18.84  -17.93  -17.79  -20.14  -21.63  -22.82  -23.72  -24.31  -24.61  -24.60  -24.29  -23.68  -22.77  -21.56  -20.06  -18.66
 260.0  -20.00  -19.87  -19.49  -18.84  -17.93  -17.91  -20.48  -22.01  -23.25  -24.19  -24.82  -25.15  -25.18  -24.90  -24.31  -23.42  -22.23  -20.74  -19.35
 265.0  -20.00  -19.87  -19.49  -18.84  -17.93  -17.98  -20.69  -22.25  -23.51  -24.47  -25.13  -25.49  -25.53  -25.27  -24.69  -23.81  -22.63  -21.15  -19.76
 270.0  -20.00  -19.87  -19.49  -18.84  -17.93  -18.01  -20.76  -22.33  -23.60  -24.58  -25.24  -25.60  -25.65  -25.40  -24.83  -23.95  -22.78  -21.30  -19.91
 275.0  -20.00  -19.87  -19.49  -18.84  -17.93  -17.99  -20.70  -22.26  -23.53  -24.49  -25.15  -25.51  -25.55  -25.29  -24.72  -23.84  -22.66  -21.18  -19.79
 280.0  -20.00  -19.87  -19.49  -18.84  -17.93  -17.92  -20.51  -22.04  -23.28  -24.22  -24.86  -25.20  -25.22  -24.94  -24.36  -23.47  -22.28  -20.79  -19.40
 285.0  -20.00  -19.87  -19.49  -18.84  -17.93  -17.80  -20.18  -21.67  -22.87  -23.77  -24.37  -24.67  -24.67  -24.36  -23.76  -22.85  -21.64  -20.14  -18.74
 290.0  -20.00  -19.87  -19.49  -18.84  -17.93  -17.64  -19.73  -21.15  -22.29  -23.14  -23.69  -23.94  -23.90  -23.55  -22.91  -21.97  -20.74  -19.23  -17.82
 295.0  -20.00  -19.87  -19.49  -18.84  -17.93  -17.43  -19.15  -20.49  -21.55  -22.33  -22.81  -23.00  -22.90  -22.51  -21.83  -20.85  -19.59  -18.06  -16.63
 300.0  -20.00  -19.87  -19.49  -18.84  -17.93  -17.23  -18.60  -19.86  -20.85  -21.56  -21.98  -22.11  -21.96  -21.52  -20.80  -19.79  -18.50  -16.94  -15.50
 305.0  -20.00  -19.87  -19.49  -18.84  -17.93  -17.41  -19.08  -20.42  -21.47  -22.24  -22.71  -22.90  -22.79  -22.39  -21.70  -20.73  -19.47  -17.92  -16.50
 310.0  -20.00  -19.87  -19.49  -18.84  -17.93  -17.62  -19.68  -21.09  -22.23  -23.06  -23.61  -23.86  -23.81  -23.46  -22.81  -21.87  -20.64  -19.12  -17.71
 315.0  -20.00  -19.87  -19.49  -18.84  -17.93  -17.79  -20.14  -21.63  -22.82  -23.72  -24.31  -24.61  -24.60  -24.29  -23.68  -22.77  -21.56  -20.06  -18.66
 320.0  -20.00  -19.87  -19.49  -18.84  -17.93  -17.91  -20.48  -22.01  -23.25  -24.19  -24.82  -25.15  -25.18  -24.90  -24.31  -23.42  -22.23  -20.74  -19.35
 325.0  -20.00  -19.87  -19.49  -18.84  -17.93  -17.98  -20.69  -22.25  -23.51  -24.47  -25.13  -25.49  -25.53  -25.27  -24.69  -23.81  -22.63  -21.15  -19.76
 330.0  -20.00  -19.87  -19.49  -18.84  -17.93  -18.01  -20.76  -22.33  -23.60  -24.58  -25.24  -25.60  -25.65  -25.40  -24.83  -23.95  -22.78  -21.30  -19.91
 335.0  -20.00  -19.87  -19.49  -18.84  -17.93  -17.99  -20.70  -22.26  -23.53  -24.49  -25.15  -25.51  -25.55  -25.29  -24.72  -23.84  -22.66  -21.18  -19.79
 340.0  -20.00  -19.87  -19.49  -18.84  -17.93  -17.92  -20.51  -22.04  -23.28  -24.22  -24.86  -25.20  -25.22  -24.94  -24.36  -23.47  -22.28  -20.79  -19.40
 345.0  -20.00  -19.87  -19.49  -18.84  -17.93  -17.80  -20.18  -21.67  -22.87  -23.77  -24.37  -24.67  -24.67  -24.36  -23.76  -22.85  -21.64  -20.14  -18.74
 350.0  -20.00  -19.87  -19.49  -18.84  -17.93  -17.64  -19.73  -21.15  -22.29  -23.14  -23.69  -23.94  -23.90  -23.55  -22.91  -21.97  -20.74  -19.23  -17.82
 355.0  -20.00  -19.87  -19.49  -18.84  -17.93  -17.43  -19.15  -20.49  -21.55  -22.33  -22.81  -23.00  -22.90  -22.51  -21.83  -20.85  -19.59  -18.06  -16.63
 360.0  -20.00  -19.87  -19.49  -18.84  -17.93  -17.23  -18.60  -19.86  -20.85  -21.56  -21.98  -22.11  -21.96  -21.52  -20.79  -19.79  -18.50  -16.94  -15.50
END OF LRA